Inclinacao_do_robo
Time (Seconds),Teta (Degrees)
74.300003,-31.190868
74.350006,-30.470335
74.400002,-29.766621
74.450005,-29.111664
74.500000,-28.309490
74.550003,-27.548796
74.600006,-26.880892
74.650002,-26.149778
74.700005,-25.371801
74.750000,-24.681454
74.800003,-23.971701
74.850006,-23.250624
74.900002,-22.451399
74.950005,-21.691866
75.000000,-20.965429
75.050003,-20.259394
75.100006,-19.563288
75.150002,-18.882631
75.200005,-18.183119
75.250000,-17.599945
75.300003,-17.047009
75.350006,-16.482769
75.400002,-15.934384
75.450005,-15.362233
75.500000,-14.812509
75.550003,-14.289856
75.600006,-13.774548
75.650002,-13.204660
75.700005,-12.652930
75.750000,-12.111153
75.800003,-11.533601
75.850006,-10.927615
75.900002,-10.333032
75.950005,-9.754252
76.000000,-9.174298
76.050003,-8.591749
76.100006,-8.014545
76.150002,-7.424566
76.200005,-6.783577
76.250000,-6.123446
76.300003,-5.439764
76.350006,-4.882219
76.400002,-4.305233
76.450005,-3.614491
76.500000,-2.850430
76.550003,-2.162298
76.600006,-1.446005
76.650002,-0.725415
76.700005,-0.039502
76.750000,0.708805
76.800003,1.392400
76.850006,2.208399
76.900002,2.914111
76.950005,3.657653
77.000000,4.254314
77.050003,4.849296
77.100006,5.575742
77.150002,6.294166
77.200005,7.031919
77.250000,7.679568
77.300003,8.381226
77.350006,9.123970
77.400002,9.731180
77.450005,10.273981
77.500000,10.864884
77.550003,11.430190
77.600006,11.978899
77.650002,12.577858
77.700005,13.157972
77.750000,13.699016
77.800003,14.306924
77.850006,14.890437
77.900002,15.511659
77.950005,16.115204
78.000000,16.705626
78.050003,17.339886
78.100006,17.951771
78.150002,18.548321
78.200005,19.124207
78.250000,19.714989
78.300003,20.290720
78.350006,20.856377
78.400002,21.433949
78.450005,22.002670
78.500000,22.622728
78.550003,23.253038
78.600006,23.841288
78.650002,24.541044
78.700005,25.229830
78.750000,25.844172
78.800003,26.437122
78.850006,27.024544
78.900002,27.685068
78.950005,28.290098
79.000000,28.916187
79.050003,29.582424
79.100006,30.204332
79.150002,30.865850
79.200005,31.496035
79.250000,32.230610
79.300003,32.828247
79.350006,33.435223
79.400002,34.023449
79.450005,34.622635
79.500000,35.251633
79.550003,35.965897
79.600006,36.691830
79.650002,37.440426
79.700005,38.128853
79.750000,38.809998
79.800003,39.620659
79.850006,40.374001
79.900002,41.148304
79.950005,41.914814
80.000000,42.624378
80.050003,43.319286
80.100006,44.029438
80.150002,44.777107
80.200005,45.463150
80.250000,46.221146
80.300003,46.884682
80.350006,47.657040
80.400002,48.422649
80.450005,49.173145
80.500000,49.792786
80.550003,50.465248
80.600006,51.225273
80.650002,51.966675
80.700005,52.720726
80.750000,53.457222
80.800003,54.258739
80.850006,54.953152
80.900002,55.667618
80.950005,56.364288
81.000000,57.137028
81.050003,57.874836
81.100006,58.575615
81.150002,59.380230
81.200005,60.070980
81.250000,60.804150
81.300003,61.619946
81.350006,62.276962
81.400002,62.948528
81.450005,63.655170
81.500000,64.269188
81.550003,64.964409
81.600006,65.761444
81.650002,66.492416
81.700005,67.199135
81.750000,67.931160
81.800003,68.562332
81.850006,69.255470
81.900002,69.933739
81.950005,70.703262
82.000000,71.422661
82.050003,72.063255
82.100006,72.704445
82.150002,73.396004
82.200005,74.090462
82.250000,74.888229
82.300003,75.541222
82.350006,76.206306
82.400002,76.788857
82.450005,77.490852
82.500000,78.256554
82.550003,78.932404
82.600006,79.626198
82.650002,80.245392
82.700005,80.995338
82.750000,81.760422
82.800003,82.524292
82.850006,83.168266
82.900002,83.951065
82.950005,84.608192
83.000000,85.215721
83.050003,85.901237
83.100006,86.707535
83.150002,87.401810
83.200005,88.155449
83.250000,88.856773
83.300003,89.556999
83.350006,90.222878
83.400002,91.072319
83.450005,91.773506
83.500000,92.503387
83.550003,93.216621
83.600006,93.948685
83.650002,94.773796
83.700005,95.468315
83.750000,96.195808
83.800003,97.123466
83.850006,97.848892
83.900002,98.522285
83.950005,99.167351
84.000000,99.968231
84.050003,100.754776
84.100006,101.430984
84.150002,102.181465
84.200005,102.967903
84.250000,103.717949
84.300003,104.494041
84.350006,105.182892
84.400002,106.005493
84.450005,106.811630
84.500000,107.604584
84.550003,108.446075
84.600006,109.193733
84.650002,109.945129
84.700005,110.730980
84.750000,111.460754
84.800003,112.178917
84.850006,112.858299
84.900002,113.562241
84.950005,114.229790
85.000000,115.026711
85.050003,115.733551
85.100006,116.346252
85.150002,117.062248
85.200005,117.708641
85.250000,118.356277
85.300003,119.118034
85.350006,119.823555
85.400002,120.560287
85.450005,121.219765
85.500000,122.005554
85.550003,122.760658
85.600006,123.377274
85.650002,124.150414
85.700005,124.890709
85.750000,125.647263
85.800003,126.380005
85.850006,127.009880
85.900002,127.781677
85.950005,128.610138
86.000000,129.330368
86.050003,130.016098
86.100006,130.702423
86.150002,131.415955
86.200005,132.249191
86.250000,132.990845
86.300003,133.694290
86.350006,134.487854
86.400002,135.184998
86.450005,135.941833
86.500000,136.721695
86.550003,137.569977
86.600006,138.253418
86.650002,139.003372
86.700005,139.816162
86.750000,140.621597
86.800003,141.481522
86.850006,142.304382
86.900002,143.060852
86.950005,143.816849
87.000000,144.483841
87.050003,145.189865
87.100006,145.962311
87.150002,146.776703
87.200005,147.491745
87.250000,148.162262
87.300003,148.897690
87.350006,149.737503
87.400002,150.549622
87.450005,151.194962
87.500000,151.933640
87.550003,152.766129
87.600006,153.563538
87.650002,154.341736
87.700005,155.148621
87.750000,155.903580
87.800003,156.626144
87.850006,157.416595
87.900002,158.187683
87.950005,158.989578
88.000000,159.709671
88.050003,160.477386
88.100006,161.208588
88.150002,161.940887
88.200005,162.815109
88.250000,163.581421
88.300003,164.348099
88.350006,165.079788
88.400002,165.898529
88.450005,166.587585
88.500000,167.352356
88.550003,168.077225
88.600006,168.878082
88.650002,169.698975
88.700005,170.310379
88.750000,170.939713
88.800003,171.698990
88.850006,172.323120
88.900002,173.168350
88.950005,173.741760
89.000000,174.436325
89.050003,175.107468
89.100006,175.828094
89.150002,176.603531
89.200005,177.246506
89.250000,178.050430
89.300003,178.778687
89.350006,179.505905
89.400002,-179.707840
89.450005,-178.997772
89.500000,-178.367325
89.550003,-177.632034
89.600006,-176.981949
89.650002,-176.229324
89.700005,-175.430740
89.750000,-174.703995
89.800003,-174.000061
89.850006,-173.262177
89.900002,-172.537506
89.950005,-171.859207
90.000000,-171.090210
90.050003,-170.465973
90.100006,-169.639114
90.150002,-168.831726
90.200005,-168.080063
90.250000,-167.350220
90.300003,-166.647095
90.350006,-165.918518
90.400002,-165.262741
90.450005,-164.460800
90.500000,-163.649216
90.550003,-162.890076
90.600006,-162.140045
90.650002,-161.396790
90.700005,-160.577103
90.750000,-159.843307
90.800003,-159.131042
90.850006,-158.404404
90.900002,-157.627594
90.950005,-156.943680
91.000000,-156.222366
91.050003,-155.515884
91.100006,-154.786530
91.150002,-153.982285
91.200005,-153.262268
91.250000,-152.430222
91.300003,-151.719711
91.350006,-151.051300
91.400002,-150.197937
91.450005,-149.411667
91.500000,-148.675003
91.550003,-147.863174
91.600006,-147.135422
91.650002,-146.334595
91.700005,-145.575638
91.750000,-144.749847
91.800003,-144.051834
91.850006,-143.309830
91.900002,-142.522034
91.950005,-141.815933
92.000000,-140.991592
92.050003,-140.274918
92.100006,-139.513351
92.150002,-138.763641
92.200005,-138.006042
92.250000,-137.231079
92.300003,-136.461365
92.350006,-135.774292
92.400002,-135.039429
92.450005,-134.233093
92.500000,-133.526550
92.550003,-132.824966
92.600006,-132.091660
92.650002,-131.446396
92.700005,-130.717453
92.750000,-130.059357
92.800003,-129.304291
92.850006,-128.628052
92.900002,-127.858681
92.950005,-127.191582
93.000000,-126.393471
93.050003,-125.653923
93.100006,-124.872635
93.150002,-124.078476
93.200005,-123.361794
93.250000,-122.571518
93.300003,-121.734856
93.350006,-120.981422
93.400002,-120.202469
93.450005,-119.517998
93.500000,-118.724876
93.550003,-117.963516
93.600006,-117.288216
93.650002,-116.482895
93.700005,-115.720428
93.750000,-114.942810
93.800003,-114.130249
93.850006,-113.425804
93.900002,-112.673988
93.950005,-111.878998
94.000000,-111.146942
94.050003,-110.377769
94.100006,-109.591103
94.150002,-108.810867
94.200005,-107.937973
94.250000,-107.098206
94.300003,-106.305260
94.350006,-105.549614
94.400002,-104.785339
94.450005,-104.039085
94.500000,-103.271042
94.550003,-102.556015
94.600006,-101.761795
94.650002,-101.010445
94.700005,-100.273964
94.750000,-99.452843
94.800003,-98.676308
94.850006,-97.911766
94.900002,-97.151634
94.950005,-96.355194
95.000000,-95.650124
95.050003,-94.955414
95.100006,-94.149940
95.150002,-93.508919
95.200005,-92.766556
95.250000,-92.104912
95.300003,-91.333458
95.350006,-90.658676
95.400002,-89.879242
95.450005,-89.118629
95.500000,-88.354065
95.550003,-87.600334
95.600006,-87.017517
95.650002,-86.228859
95.700005,-85.506638
95.750000,-84.798141
95.800003,-84.052895
95.850006,-83.340668
95.900002,-82.628967
95.950005,-81.912621
96.000000,-81.084999
96.050003,-80.309975
96.100006,-79.548912
96.150002,-78.835541
96.200005,-78.218277
96.250000,-77.388893
96.300003,-76.589729
96.350006,-75.877831
96.400002,-75.196930
96.450005,-74.394516
96.500000,-73.649719
96.550003,-72.860886
96.600006,-72.094978
96.650002,-71.328697
96.700005,-70.605995
96.750000,-69.772774
96.800003,-69.033394
96.850006,-68.296486
96.900002,-67.620018
96.950005,-66.806221
97.000000,-65.966164
97.050003,-65.285652
97.100006,-64.571434
97.150002,-63.683681
97.200005,-62.952244
97.250000,-62.191162
97.300003,-61.518387
97.350006,-60.739105
97.400002,-60.016586
97.450005,-59.278515
97.500000,-58.589268
97.550003,-58.036972
97.600006,-57.410049
97.650002,-56.711956
97.700005,-55.998966
97.750000,-55.275585
97.800003,-54.572025
97.850006,-53.970455
97.900002,-53.337318
97.950005,-52.739811
98.000000,-52.008720
98.050003,-51.390633
98.100006,-50.693771
98.150002,-49.959660
98.200005,-49.221588
98.250000,-48.517033
98.300003,-47.892971
98.350006,-47.233372
98.400002,-46.495171
98.450005,-45.769321
98.500000,-45.078789
98.550003,-44.400497
98.600006,-43.534508
98.650002,-42.887085
98.700005,-42.159843
98.750000,-41.366581
98.800003,-40.546329
98.850006,-39.742508
98.900002,-38.982414
98.950005,-38.286510
99.000000,-37.542480
99.050003,-36.854897
99.100006,-36.133839
99.150002,-35.595749
99.200005,-34.945026
99.250000,-34.270206
99.300003,-33.561592
99.350006,-32.841881
99.400002,-32.139385
99.450005,-31.549166
99.500000,-30.968546
99.550003,-30.344812
99.600006,-29.699244
99.650002,-29.109232
99.700005,-28.521538
99.750000,-27.917732
99.800003,-27.341570
99.850006,-26.729044
99.900002,-26.107925
99.950005,-25.506844
100.000000,-24.868189
100.050003,-24.252203
100.100006,-23.628542
100.150002,-22.912897
100.200005,-22.314939
100.250000,-21.748222
100.300003,-21.091459
100.350006,-20.459015
100.400002,-19.792957
100.450005,-19.113655
100.500000,-18.453138
100.550003,-17.694567
100.600006,-16.909954
100.650002,-16.278049
100.700005,-15.606103
100.750000,-14.896805
100.800003,-14.449009
100.850006,-13.805367
100.900002,-13.185280
100.950005,-12.622253
101.000000,-11.876515
101.050003,-11.153253
101.100006,-10.563128
101.150002,-10.009885
101.200005,-9.447762
101.250000,-8.917256
101.300003,-8.319356
101.350006,-7.790203
101.400002,-7.214527
101.450005,-6.624792
101.500000,-6.071424
101.550003,-5.551929
101.600006,-5.016005
101.650002,-4.518259
101.700005,-3.947407
101.750000,-3.250569
101.800003,-2.571385
101.850006,-1.848294
101.900002,-1.258213
101.950005,-0.652006
102.000000,-0.011196
102.050003,0.663468
102.100006,1.325789
102.150002,1.864739
102.200005,2.436224
102.250000,3.033997
102.300003,3.610356
102.350006,4.304743
102.400002,5.140871
102.450005,6.012780
102.500000,6.752339
102.550003,7.455290
102.600006,8.167957
102.650002,8.948285
102.700005,9.661847
102.750000,10.372159
102.800003,11.109722
102.850006,11.856684
102.900002,12.537614
102.950005,13.235409
103.000000,13.916925
103.050003,14.452908
103.100006,14.997243
103.150002,15.606105
103.200005,16.222136
103.250000,16.835672
103.300003,17.425922
103.350006,17.981295
103.400002,18.555607
103.450005,19.120029
103.500000,19.674238
103.550003,20.261675
103.600006,20.820786
103.650002,21.398209
103.700005,21.977682
103.750000,22.507118
103.800003,23.070862
103.850006,23.634941
103.900002,24.177034
103.950005,24.753740
104.000000,25.295307
104.050003,25.852982
104.100006,26.303511
104.150002,26.711088
104.200005,27.247087
104.250000,27.967051
104.300003,28.598425
104.350006,29.442261
104.400002,30.208958
104.450005,30.957836
104.500000,31.593214
104.550003,32.366913
104.600006,33.131237
104.650002,33.915112
104.700005,34.725151
104.750000,35.404858
104.800003,36.257736
104.850006,36.990791
104.900002,37.699890
104.950005,38.561577
105.000000,39.378902
105.050003,40.109760
105.100006,40.832451
105.150002,41.578175
105.200005,42.415897
105.250000,43.162823
105.300003,44.013603
105.350006,44.864052
105.400002,45.641953
105.450005,46.443970
105.500000,47.186199
105.550003,47.833725
105.600006,48.543468
105.650002,49.173676
105.700005,49.773369
105.750000,50.505100
105.800003,51.255257
105.850006,51.986195
105.900002,52.532230
105.950005,53.143078
106.000000,53.734184
106.050003,54.466190
106.100006,55.268276
106.150002,55.984028
106.200005,56.654060
106.250000,57.402958
106.300003,58.153896
106.350006,58.895267
106.400002,59.612259
106.450005,60.369305
106.500000,61.105911
106.550003,61.736652
106.600006,62.438938
106.650002,63.122997
106.700005,63.857597
106.750000,64.623840
106.800003,65.348259
106.850006,65.960854
106.900002,66.764687
106.950005,67.486359
107.000000,68.103043
107.050003,68.820770
107.100006,69.547974
107.150002,70.208557
107.200005,70.894112
107.250000,71.514099
107.300003,72.181564
107.350006,72.941795
107.400002,73.646446
107.450005,74.309601
107.500000,75.009483
107.550003,75.733490
107.600006,76.341995
107.650002,77.079857
107.700005,77.762039
107.750000,78.360588
107.800003,79.098137
107.850006,79.549309
107.900002,80.274651
107.950005,80.959290
108.000000,81.588287
108.050003,82.261932
108.100006,83.030182
108.150002,83.779137
108.200005,84.440269
108.250000,85.176460
108.300003,85.918976
108.350006,86.646606
108.400002,87.379189
108.450005,88.015625
108.500000,88.789581
108.550003,89.513237
108.600006,90.212761
108.650002,90.963242
108.700005,91.703362
108.750000,92.431244
108.800003,93.120102
108.850006,93.844864
108.900002,94.565353
108.950005,95.277969
109.000000,96.000572
109.050003,96.591980
109.100006,97.310692
109.150002,97.954254
109.200005,98.698608
109.250000,99.472183
109.300003,100.080940
109.350006,100.788109
109.400002,101.448685
109.450005,102.081512
109.500000,102.893600
109.550003,103.608055
109.600006,104.364479
109.650002,105.060112
109.700005,105.835976
109.750000,106.566422
109.800003,107.325516
109.850006,107.997581
109.900002,108.724991
109.950005,109.506485
110.000000,110.258156
110.050003,110.978477
110.100006,111.711105
110.150002,112.540840
110.200005,113.206398
110.250000,114.038979
110.300003,114.734230
110.350006,115.374138
110.400002,116.174034
110.450005,117.028137
110.500000,117.821022
110.550003,118.524109
110.600006,119.367088
110.650002,120.219170
110.700005,120.976120
110.750000,121.818489
110.800003,122.439751
110.850006,123.136047
110.900002,123.931587
110.950005,124.675598
111.000000,125.422859
111.050003,126.183334
111.100006,127.000549
111.150002,127.751381
111.200005,128.454163
111.250000,129.211655
111.300003,130.052582
111.350006,130.796570
111.400002,131.550613
111.450005,132.305664
111.500000,133.030823
111.550003,133.828964
111.600006,134.605026
111.650002,135.429962
111.700005,136.171249
111.750000,136.893463
111.800003,137.675446
111.850006,138.431198
111.900002,139.222580
111.950005,139.984268
112.000000,140.783997
112.050003,141.560852
112.100006,142.359833
112.150002,143.011703
112.200005,143.548676
112.250000,144.170563
112.300003,144.739944
112.350006,145.310928
112.400002,145.829834
112.450005,146.425812
112.500000,146.999481
112.550003,147.577286
112.600006,148.172302
112.650002,148.772552
112.700005,149.343857
112.750000,149.924683
112.800003,150.496185
112.850006,151.127335
112.900002,151.685043
112.950005,152.189240
113.000000,152.755951
113.050003,153.304779
113.100006,153.846893
113.150002,154.399078
113.200005,154.987442
113.250000,155.555206
113.300003,156.103271
113.350006,156.616257
113.400002,157.176254
113.450005,157.739792
113.500000,158.255859
113.550003,158.819580
113.600006,159.413193
113.650002,159.995316
113.700005,160.572433
113.750000,161.141663
113.800003,161.619141
113.850006,162.202469
113.900002,162.779083
113.950005,163.273972
114.000000,163.825729
114.050003,164.309479
114.100006,164.795502
114.150002,165.299454
114.200005,165.791351
114.250000,166.240067
114.300003,166.736252
114.350006,167.475525
114.400002,168.333145
114.450005,169.050476
114.500000,169.770752
114.550003,170.441589
114.600006,171.216965
114.650002,172.030823
114.700005,172.756622
114.750000,173.474091
114.800003,174.170914
114.850006,174.931854
114.900002,175.625534
114.950005,176.381454
115.000000,177.178955
115.050003,177.958313
115.100006,178.706146
115.150002,179.470825
115.200005,-179.738693
115.250000,-179.092880
115.300003,-178.435791
115.350006,-177.667725
115.400002,-176.926392
115.450005,-176.151688
115.500000,-175.538895
115.550003,-174.756485
115.600006,-173.941330
115.650002,-173.156738
115.700005,-172.350082
115.750000,-171.649277
115.800003,-170.870270
115.850006,-170.204651
115.900002,-169.407455
115.950005,-168.716965
116.000000,-168.050095
116.050003,-167.261063
116.100006,-166.472061
116.150002,-165.791641
116.200005,-165.006378
116.250000,-164.199448
116.300003,-163.544464
116.350006,-162.798309
116.400002,-162.098907
116.450005,-161.393250
116.500000,-160.595993
116.550003,-159.826035
116.600006,-159.041824
116.650002,-158.411606
116.700005,-157.710770
116.750000,-156.914856
116.800003,-156.272446
116.850006,-155.510971
116.900002,-154.723267
116.950005,-153.969833
117.000000,-153.203903
117.050003,-152.435165
117.100006,-151.692352
117.150002,-150.894714
117.200005,-150.318588
117.250000,-149.640045
117.300003,-148.875702
117.350006,-148.191162
117.400002,-147.516937
117.450005,-146.777878
117.500000,-146.052307
117.550003,-145.308929
117.600006,-144.585953
117.650002,-143.893600
117.700005,-143.237061
117.750000,-142.539215
117.800003,-141.785263
117.850006,-141.031448
117.900002,-140.319275
117.950005,-139.639816
118.000000,-139.018204
118.050003,-138.383926
118.100006,-137.657776
118.150002,-136.899826
118.200005,-136.186615
118.250000,-135.463043
118.300003,-134.815002
118.350006,-134.125427
118.400002,-133.396393
118.450005,-132.771179
118.500000,-132.034225
118.550003,-131.333145
118.600006,-130.581314
118.650002,-129.864929
118.700005,-129.151001
118.750000,-128.578873
118.800003,-127.835449
118.850006,-127.164986
118.900002,-126.477333
118.950005,-125.760284
119.000000,-125.135681
119.050003,-124.429413
119.100006,-123.677635
119.150002,-122.916618
119.200005,-122.194794
119.250000,-121.422585
119.300003,-120.694420
119.350006,-120.039513
119.400002,-119.321342
119.450005,-118.554932
119.500000,-117.795631
119.550003,-117.112022
119.600006,-116.347275
119.650002,-115.610435
119.700005,-114.734764
119.750000,-113.897804
119.800003,-113.127625
119.850006,-112.385895
119.900002,-111.597107
119.950005,-110.769875
120.000000,-109.944481
120.050003,-109.180855
120.100006,-108.434387
120.150002,-107.639343
120.200005,-106.814919
120.250000,-106.044388
120.300003,-105.261116
120.350006,-104.445137
120.400002,-103.688850
120.450005,-102.925705
120.500000,-102.176003
120.550003,-101.360756
120.600006,-100.584656
120.650002,-99.933830
120.700005,-99.176964
120.750000,-98.472176
120.800003,-97.698997
120.850006,-97.089783
120.900002,-96.500435
120.950005,-95.900314
121.000000,-95.306625
121.050003,-94.691719
121.100006,-93.907280
121.150002,-93.291801
121.200005,-92.604355
121.250000,-91.855309
121.300003,-91.085793
121.350006,-90.360558
121.400002,-89.708954
121.450005,-89.014069
121.500000,-88.314316
121.550003,-87.592278
121.600006,-86.896797
121.650002,-86.308006
121.700005,-85.665733
121.750000,-84.912140
121.800003,-84.313820
121.850006,-83.633987
121.900002,-82.899590
121.950005,-82.243210
122.000000,-81.502487
122.050003,-80.880707
122.100006,-80.164192
122.150002,-79.422157
122.200005,-78.802185
122.250000,-78.107750
122.300003,-77.349739
122.350006,-76.627861
122.400002,-75.993576
122.450005,-75.287872
122.500000,-74.567986
122.550003,-73.911484
122.600006,-73.202301
122.650002,-72.541542
122.700005,-71.890015
122.750000,-71.153893
122.800003,-70.445396
122.850006,-69.815834
122.900002,-69.094749
122.950005,-68.336800
123.000000,-67.537010
123.050003,-66.866447
123.100006,-66.157433
123.150002,-65.504395
123.200005,-64.775360
123.250000,-63.897411
123.300003,-63.120258
123.350006,-62.361820
123.400002,-61.669125
123.450005,-60.978249
123.500000,-60.264893
123.550003,-59.584602
123.600006,-58.837940
123.650002,-58.200352
123.700005,-57.474506
123.750000,-56.714596
123.800003,-56.005795
123.850006,-55.278908
123.900002,-54.610783
123.950005,-53.871960
124.000000,-53.201588
124.050003,-52.492420
124.100006,-51.763893
124.150002,-51.051247
124.200005,-50.343369
124.250000,-49.618843

